File: data/150715_Raman_S8_no_CNT.txt
3002.22	288.167
2994.2	307.502
2986.17	257.038
2978.13	293.72
2970.08	356.392
2962.02	303.877
2953.95	310.02
2945.88	298.825
2937.79	283.331
2929.69	252.751
2921.59	271.87
2913.47	273.702
2905.34	264.767
2897.21	296.702
2889.06	277.022
2880.91	276.693
2872.75	244.228
2864.57	273.895
2856.39	279.981
2848.19	294.591
2839.99	281.447
2831.78	261.945
2823.55	291.412
2815.32	265.57
2807.08	277.985
2798.83	264.937
2790.56	290.025
2782.29	224.131
2774.01	263.99
2765.72	255.237
2757.42	229.65
2749.1	271.462
2740.78	245.916
2732.45	228.827
2724.11	283.071
2715.76	276.449
2707.4	223.823
2699.02	269.52
2690.64	229.548
2682.25	235.526
2673.85	237.326
2665.44	272.39
2657.01	226.373
2648.58	259.291
2640.14	219.615
2631.69	256.6
2623.23	233.557
2614.75	243.598
2606.27	220.625
2597.78	205.944
2589.27	236.551
2580.76	230.103
2572.24	199.046
2563.7	237.748
2555.16	227.227
2546.6	235.132
2538.04	212.385
2529.46	212.129
2520.88	222.06
2512.28	209.584
2503.68	223.557
2495.06	198.929
2486.43	206.799
2477.79	214.649
2469.15	194.165
2460.49	171.709
2451.82	193.696
2443.14	211.599
2434.45	201.28
2425.75	209.078
2417.04	204.809
2408.32	188.518
2399.58	206.317
2390.84	222.073
2382.09	215.809
2373.33	193.594
2364.55	195.353
2355.76	195.116
2346.97	224.708
2338.16	196.629
2329.34	226.147
2320.52	204.078
2311.68	213.725
2302.83	171.958
2293.97	205.31
2285.1	185.343
2276.22	191.025
2267.33	198.661
2258.42	186.632
2249.51	200.14
2240.58	190.098
2231.65	182.037
2222.7	201.365
2213.74	214.788
2204.77	163.82
2195.79	192.838
2186.8	196.494
2177.8	361.419
2168.79	180.489
2159.77	195.776
2150.73	197.473
2141.69	183.696
2132.63	216.303
2123.56	216.039
2114.48	233.114
2105.39	203.966
2096.29	178.732
2087.18	186.191
2078.06	193.632
2068.92	201.054
2059.78	175.946
2050.62	175.73
2041.45	185.053
2032.27	196.259
2023.08	199.824
2013.88	159.663
2004.67	161.366
1995.44	123.246
1986.21	179.907
1976.96	168.337
1967.7	149.239
1958.43	164.15
1949.15	163.948
1939.85	178.803
1930.55	178.583
1921.23	161.466
1911.91	166.892
1902.57	132.975
1893.22	145.905
1883.85	136.383
1874.48	164.205
1865.1	177.047
1855.7	152.631
1846.29	146.866
1836.87	159.681
1827.44	137.23
1818	168.548
1808.54	142.441
1799.07	144.112
1789.59	149.47
1780.1	114.267
1770.6	127.011
1761.09	143.4
1751.56	108.334
1742.03	146.712
1732.48	111.729
1722.92	129.884
1713.34	124.241
1703.76	155.109
1694.16	158.561
1684.55	136.521
1674.93	136.351
1665.3	152.523
1655.66	134.199
1646	143.088
1636.33	151.955
1626.65	133.698
1616.95	166.012
1607.25	162.201
1597.53	136.799
1587.8	161.796
1578.06	143.639
1568.31	159.599
1558.54	141.49
1548.76	135.947
1538.98	119.698
1529.17	135.607
1519.36	121.181
1509.53	126.369
1499.69	120.878
1489.84	111.85
1479.98	120.575
1470.1	118.653
1460.21	137.96
1450.31	139.554
1440.4	149.965
1430.47	126.869
1420.53	124.95
1410.58	163.462
1400.62	138.68
1390.64	124.48
1380.65	127.825
1370.65	131.162
1360.64	118.771
1350.61	130.832
1340.57	118.472
1330.52	132.243
1320.45	107.746
1310.38	133.645
1300.29	104.008
1290.18	117.727
1280.07	131.411
1269.94	136.426
1259.8	105.208
1249.65	132.636
1239.48	129.028
1229.3	132.301
1219.11	123.553
1208.9	118.255
1198.68	123.241
1188.45	124.794
1178.21	129.758
1167.95	163.697
1157.68	386.584
1147.4	163.282
1137.1	105.319
1126.79	122.15
1116.47	113.523
1106.13	121.84
1095.78	160.557
1085.42	178.92
1075.05	220.837
1064.66	535.394
1054.26	168.149
1043.84	119.233
1033.41	132.499
1022.97	113.904
1012.51	100.376
1002.05	116.955
991.566	108.463
981.07	118.324
970.562	114.844
960.038	146.28
949.503	127.831
938.954	124.352
928.392	145.719
917.816	157.109
907.226	142.043
896.624	135.263
886.007	153.211
875.376	153.015
864.732	146.245
854.075	147.699
843.404	163.899
832.718	193.152
822.019	138.956
811.306	223.677
800.579	469.607
789.839	366.408
779.085	203.298
768.318	146.186
757.536	155.731
746.739	111.787
735.931	131.059
725.107	129.274
714.269	142.018
703.417	161.176
692.552	231.794
681.671	127
670.779	131.653
659.87	80.1722
648.948	137.718
638.011	155.132
627.062	108.611
616.097	143.564
605.118	154.53
594.124	167.057
583.116	154.129
572.095	147.581
561.06	201.274
550.009	204.178
538.945	252.916
527.864	307.84
516.773	351.585
505.663	385.768
494.542	657.31
483.404	1267.37
472.253	4747.6
461.087	11348.4
449.905	1605
438.71	415.569
427.501	240.279
416.277	171.404
405.038	231.871
393.784	365.224
382.515	121.065
371.232	102.305
359.933	130.037
348.62	140.689
337.292	106.536
325.95	117.19
314.593	89.3176
303.22	130.725
291.833	144.377
280.431	173.331
269.013	454.971
257.579	510.979
246.132	504.196
234.671	686.636
223.193	1458.32
211.7	3386.1
200.193	3147.59
188.669	1243.11
177.13	566.923
165.577	364.835
154.009	318.998
142.425	409.168
130.825	1815.45
119.21	383.994
107.581	168.433
100.927	124.727