File: data/150715_Raman_S8_with_CNT.txt
3002.22	176.83
2994.2	194.097
2986.17	161.193
2978.13	169.705
2970.08	156.465
2962.02	197.52
2953.95	182.11
2945.88	212.209
2937.79	190.329
2929.69	198.744
2921.59	161.827
2913.47	185.342
2905.34	170.053
2897.21	195.651
2889.06	171.797
2880.91	199.476
2872.75	186.385
2864.57	164.765
2856.39	170.981
2848.19	192.124
2839.99	144.988
2831.78	189.537
2823.55	148.897
2815.32	174.214
2807.08	176.128
2798.83	167.44
2790.56	188.41
2782.29	234.703
2774.01	160.506
2765.72	185.627
2757.42	170.657
2749.1	208.332
2740.78	199.675
2732.45	203.635
2724.11	224.36
2715.76	203.148
2707.4	244.742
2699.02	240.27
2690.64	250.416
2682.25	270.96
2673.85	287.289
2665.44	218.328
2657.01	207.682
2648.58	188.764
2640.14	192.681
2631.69	163.479
2623.23	198.42
2614.75	173.409
2606.27	150.52
2597.78	181.23
2589.27	174.842
2580.76	145.869
2572.24	145.693
2563.7	149.617
2555.16	145.343
2546.6	153.347
2538.04	185.837
2529.46	159.097
2520.88	152.793
2512.28	158.714
2503.68	170.716
2495.06	148.182
2486.43	141.921
2477.79	190.35
2469.15	153.714
2460.49	175.75
2451.82	145.272
2443.14	181.371
2434.45	173.101
2425.75	144.746
2417.04	178.706
2408.32	182.501
2399.58	148.228
2390.84	128.042
2382.09	143.873
2373.33	155.673
2364.55	149.505
2355.76	171.224
2346.97	153.12
2338.16	154.92
2329.34	190.44
2320.52	156.526
2311.68	182.062
2302.83	158.122
2293.97	136.215
2285.1	134.078
2276.22	151.639
2267.33	167.19
2258.42	157.164
2249.51	147.162
2240.58	170.5
2231.65	142.889
2222.7	130.985
2213.74	142.541
2204.77	142.368
2195.79	148.038
2186.8	147.857
2177.8	299.24
2168.79	159.141
2159.77	135.686
2150.73	151.009
2141.69	179.829
2132.63	133.258
2123.56	169.745
2114.48	196.509
2105.39	180.875
2096.29	174.888
2087.18	138.204
2078.06	161.04
2068.92	166.587
2059.78	170.208
2050.62	137.528
2041.45	154.529
2032.27	152.434
2023.08	127.507
2013.88	115.946
2004.67	119.6
1995.44	100.493
1986.21	136.351
1976.96	117.269
1967.7	141.683
1958.43	145.282
1949.15	143.219
1939.85	158.1
1930.55	159.785
1921.23	146.446
1911.91	112.512
1902.57	116.119
1893.22	140.293
1883.85	149.461
1874.48	164.205
1865.1	124.865
1855.7	119.127
1846.29	117.121
1836.87	133.687
1827.44	89.0143
1818	151.878
1808.54	135.041
1799.07	153.35
1789.59	116.254
1780.1	141.913
1770.6	130.692
1761.09	126.853
1751.56	124.86
1742.03	80.6916
1732.48	120.887
1722.92	129.884
1713.34	147.994
1703.76	109.489
1694.16	129.401
1684.55	127.42
1674.93	127.261
1665.3	128.919
1655.66	137.826
1646	150.333
1636.33	166.426
1626.65	169.833
1616.95	225.56
1607.25	356.841
1597.53	444.595
1587.8	364.94
1578.06	321.393
1568.31	240.296
1558.54	220.294
1548.76	160.99
1538.98	141.137
1529.17	110.627
1519.36	110.489
1509.53	147.727
1499.69	115.545
1489.84	94.0956
1479.98	117.029
1470.1	113.34
1460.21	114.967
1450.31	93.6248
1440.4	125.264
1430.47	105.724
1420.53	144.309
1410.58	98.4285
1400.62	103.571
1390.64	99.9345
1380.65	124.323
1370.65	111.925
1360.64	127.504
1350.61	113.388
1340.57	111.503
1330.52	102.662
1320.45	93.8436
1310.38	98.9322
1300.29	100.541
1290.18	115.995
1280.07	133.14
1269.94	105.341
1259.8	106.933
1249.65	91.2949
1239.48	101.502
1229.3	134.019
1219.11	120.121
1208.9	94.2614
1198.68	106.124
1188.45	128.213
1178.21	121.221
1167.95	189.274
1157.68	407.02
1147.4	149.675
1137.1	117.21
1126.79	110.275
1116.47	111.829
1106.13	133.686
1095.78	145.346
1085.42	182.296
1075.05	207.35
1064.66	548.863
1054.26	178.237
1043.84	119.233
1033.41	97.2778
1022.97	97.1537
1012.51	110.413
1002.05	103.589
991.566	83.433
981.07	86.6595
970.562	109.85
960.038	101.399
949.503	126.171
938.954	116.062
928.392	155.655
917.816	165.378
907.226	145.346
896.624	141.861
886.007	164.743
875.376	131.625
864.732	157.748
854.075	167.392
843.404	180.289
832.718	152.23
822.019	170.017
811.306	215.514
800.579	451.671
789.839	363.151
779.085	167.518
768.318	123.446
757.536	120.043
746.739	126.368
735.931	131.059
725.107	103.42
714.269	108.128
703.417	154.729
692.552	215.697
681.671	109.317
670.779	112.386
659.87	123.465
648.948	116.9
638.011	129.543
627.062	119.792
616.097	132.398
605.118	117.889
594.124	157.511
583.116	166.841
572.095	158.69
561.06	167.993
550.009	234.251
538.945	256.077
527.864	269.952
516.773	326.359
505.663	390.491
494.542	630.578
483.404	1257.94
472.253	4554.69
461.087	11293.6
449.905	1686.35
438.71	378.074
427.501	218.435
416.277	180.753
405.038	203.859
393.784	379.211
382.515	155.211
371.232	130.207
359.933	136.229
348.62	131.412
337.292	117.344
325.95	100.229
314.593	100.097
303.22	133.801
291.833	152.056
280.431	219.348
269.013	458.035
257.579	507.919
246.132	508.779
234.671	750.722
223.193	1440.04
211.7	3323.71
200.193	3174.94
188.669	1227.93
177.13	595.724
165.577	364.835
154.009	382.496
142.425	416.717
130.825	1860.69
119.21	328.277
107.581	166.93
100.927	124.727